#ANTENNA_REF_FILE_V1			
			
#AntennaManufacturer:                   	SATIMO		
#AntennaType:                           	SH800		
#AntennaSerialNumber:                   	205		
			
#S11DataType:                           	Measured		
#S11MeasurementInstrumentation:         	Agilent PNA N5230A 		
#S11MeasurementInstrumentationReference: 			
#S11MeasurementDate:                    	2009-10-27		
			
#GainDataType:                          	Typical		
#GainMeasurementSystemType:             			
#GainMeasurementSystemReference:        			
#GainMeasurementDate:                   			
			
#EfficiencyDataType:                    	Typical		
#EfficiencyMeasurementSystemType:       			
#EfficiencyMeasurementSystemReference:  			
#EfficiencyMeasurementDate:             			
			
# Columns : 			
#			
# Frequency | 	Return Loss|	Efficiency |	   Gain    |
#   (Mhz)   |	   (dB)    |	   (dB)    |	   (dBi)   |
			
800	-13.75	-0.34	6.13
810	-14.68	-0.32	6.40
820	-15.56	-0.29	6.34
830	-16.56	-0.26	6.40
840	-17.72	-0.22	6.42
850	-19.04	-0.18	6.48
860	-20.55	-0.15	6.53
870	-22.22	-0.13	6.59
880	-24.18	-0.12	6.65
890	-26.29	-0.12	6.71
900	-28.41	-0.11	6.76
910	-30.32	-0.11	6.80
920	-31.36	-0.11	6.84
930	-31.28	-0.11	6.89
940	-30.07	-0.11	6.95
950	-28.62	-0.11	7.02
960	-27.23	-0.11	7.11
970	-26.23	-0.11	7.20
980	-25.59	-0.11	7.28
990	-25.21	-0.11	7.32
1000	-25.11	-0.11	7.34
1010	-25.01	-0.11	7.35
1020	-24.92	-0.11	7.36
1030	-24.74	-0.11	7.38
1040	-24.44	-0.11	7.43
1050	-24.15	-0.11	7.49
1060	-23.87	-0.11	7.54
1070	-23.83	-0.11	7.59
1080	-24.02	-0.11	7.63
1090	-24.40	-0.11	7.67
1100	-24.98	-0.10	7.73
1110	-25.58	-0.10	7.79
1120	-26.25	-0.10	7.86
1130	-26.99	-0.10	7.93
1140	-27.85	-0.09	7.99
1150	-29.07	-0.09	8.04
1160	-30.54	-0.08	8.08
1170	-32.61	-0.07	8.13
1180	-35.50	-0.07	8.19
1190	-38.97	-0.06	8.24
1200	-38.01	-0.05	8.29
1210	-33.36	-0.05	8.34
1220	-29.73	-0.04	8.38
1230	-27.01	-0.04	8.41
1240	-24.99	-0.04	8.46
1250	-23.31	-0.05	8.50
1260	-21.92	-0.06	8.55
1270	-20.67	-0.08	8.60
1280	-19.54	-0.09	8.65
1290	-18.56	-0.12	8.69
1300	-17.64	-0.14	8.72
1310	-16.84	-0.16	8.75
1320	-16.09	-0.18	8.75
1330	-15.39	-0.20	8.75
1340	-14.76	-0.21	8.75
1350	-14.20	-0.23	8.75
1360	-13.73	-0.24	8.75
1370	-13.33	-0.26	8.75
1380	-12.99	-0.28	8.77
1390	-12.68	-0.30	8.78
1400	-12.37	-0.32	8.80
1410	-12.09	-0.35	8.83
1420	-11.83	-0.37	8.86
1430	-11.58	-0.39	8.90
1440	-11.37	-0.41	8.95
1450	-11.16	-0.42	9.01
1460	-10.99	-0.43	9.06
1470	-10.85	-0.44	9.10
1480	-10.74	-0.44	9.14
1490	-10.67	-0.44	9.18
1500	-10.62	-0.43	9.23
1510	-10.60	-0.44	9.29
1520	-10.58	-0.43	9.34
1530	-10.55	-0.44	9.38
1540	-10.55	-0.44	9.40
1550	-10.55	-0.44	9.42
1560	-10.58	-0.44	9.44
1570	-10.65	-0.44	9.48
1580	-10.73	-0.44	9.55
1590	-10.84	-0.43	9.64
1600	-10.97	-0.42	9.73
1610	-11.12	-0.39	9.80
1620	-11.30	-0.37	9.85
1630	-11.51	-0.35	9.88
1640	-11.75	-0.33	9.91
1650	-12.01	-0.31	9.95
1660	-12.30	-0.30	10.01
1670	-12.64	-0.28	10.09
1680	-13.00	-0.27	10.17
1690	-13.43	-0.25	10.25
1700	-13.92	-0.23	10.32
1710	-14.48	-0.21	10.39
1720	-15.15	-0.19	10.45
1730	-15.93	-0.18	10.49
1740	-16.87	-0.16	10.51
1750	-18.01	-0.14	10.48
1760	-19.41	-0.12	10.43
1770	-21.23	-0.11	10.37
1780	-23.60	-0.10	10.29
1790	-27.04	-0.09	10.21
1800	-32.51	-0.09	10.15
1810	-35.96	-0.09	10.09
1820	-29.39	-0.10	10.03
1830	-24.74	-0.12	9.95
1840	-21.52	-0.13	9.86
1850	-19.17	-0.16	9.75
1860	-17.37	-0.18	9.63
1870	-15.95	-0.21	9.51
1880	-14.88	-0.24	9.40
1890	-14.03	-0.27	9.29
1900	-13.38	-0.30	9.19
1910	-12.88	-0.33	9.13
1920	-12.48	-0.35	9.10
1930	-12.17	-0.37	9.10
1940	-11.90	-0.39	9.13
1950	-11.68	-0.40	9.18
1960	-11.51	-0.41	9.23
1970	-11.38	-0.41	9.27
1980	-11.31	-0.41	9.31
1990	-11.27	-0.41	9.33
2000	-11.27	-0.41	9.34
2010	-11.30	-0.41	9.35
2020	-11.30	-0.40	9.35
2030	-11.32	-0.41	9.35
2040	-11.29	-0.41	9.36
2050	-11.25	-0.42	9.37
2060	-11.20	-0.42	9.39
2070	-11.13	-0.42	9.41
2080	-11.08	-0.42	9.44
2090	-11.04	-0.42	9.47
2100	-11.01	-0.42	9.49
2110	-11.02	-0.41	9.52
2120	-11.03	-0.41	9.55
2130	-11.06	-0.41	9.59
2140	-11.10	-0.41	9.63
2150	-11.14	-0.40	9.69
2160	-11.24	-0.40	9.76
2170	-11.32	-0.39	9.85
2180	-11.44	-0.38	9.97
2190	-11.56	-0.37	10.10
2200	-11.68	-0.36	10.23
2210	-11.84	-0.35	10.35
2220	-12.00	-0.34	10.46
2230	-12.20	-0.32	10.53
2240	-12.43	-0.31	10.58
2250	-12.68	-0.29	10.62
2260	-12.98	-0.28	10.64
2270	-13.27	-0.26	10.67
2280	-13.62	-0.25	10.69
2290	-13.99	-0.24	10.71
2300	-14.35	-0.22	10.73
2310	-14.79	-0.21	10.73
2320	-15.25	-0.19	10.74
2330	-15.77	-0.18	10.74
2340	-16.36	-0.17	10.74
2350	-16.99	-0.16	10.75
2360	-17.73	-0.15	10.77
2370	-18.51	-0.14	10.80
2380	-19.35	-0.13	10.83
2390	-20.28	-0.12	10.87
2400	-21.13	-0.11	10.89
2410	-21.97	-0.11	10.89
2420	-22.64	-0.11	10.90
2430	-22.98	-0.11	10.90
2440	-23.14	-0.11	10.89
2450	-22.92	-0.11	10.89
2460	-22.42	-0.12	10.91
2470	-21.71	-0.12	10.92
2480	-20.73	-0.13	10.92
2490	-19.77	-0.14	10.94
2500	-18.82	-0.15	10.96
2510	-17.88	-0.17	10.98
2520	-17.07	-0.18	11.01
2530	-16.31	-0.20	11.06
2540	-15.64	-0.21	11.11
2550	-15.06	-0.23	11.17
2560	-14.49	-0.25	11.23
2570	-14.00	-0.27	11.30
2580	-13.53	-0.29	11.36
2590	-13.10	-0.30	11.39
2600	-12.74	-0.32	11.42
2610	-12.40	-0.33	11.42
2620	-12.15	-0.35	11.41
2630	-11.92	-0.36	11.39
2640	-11.75	-0.37	11.37
2650	-11.63	-0.38	11.35
2660	-11.52	-0.38	11.34
2670	-11.47	-0.38	11.34
2680	-11.43	-0.39	11.35
2690	-11.42	-0.39	11.34
2700	-11.43	-0.38	11.33
2710	-11.44	-0.38	11.32
2720	-11.51	-0.37	11.29
2730	-11.59	-0.37	11.27
2740	-11.71	-0.36	11.27
2750	-11.89	-0.34	11.28
2760	-12.05	-0.33	11.30
2770	-12.27	-0.32	11.33
2780	-12.49	-0.31	11.35
2790	-12.72	-0.30	11.36
2800	-12.99	-0.28	11.36
2810	-13.23	-0.27	11.36
2820	-13.54	-0.26	11.38
2830	-13.86	-0.24	11.40
2840	-14.19	-0.23	11.45
2850	-14.60	-0.22	11.50
2860	-15.01	-0.21	11.55
2870	-15.47	-0.20	11.59
2880	-15.95	-0.19	11.62
2890	-16.41	-0.18	11.63
2900	-16.93	-0.17	11.64
2910	-17.41	-0.16	11.67
2920	-17.94	-0.15	11.70
2930	-18.51	-0.15	11.74
2940	-19.07	-0.14	11.78
2950	-19.77	-0.14	11.83
2960	-20.45	-0.13	11.86
2970	-21.22	-0.13	11.89
2980	-22.07	-0.13	11.92
2990	-22.82	-0.12	11.95
3000	-23.66	-0.12	11.99
3010	-24.32	-0.12	12.03
3020	-24.80	-0.12	12.08
3030	-25.21	-0.12	12.12
3040	-25.31	-0.12	12.15
3050	-25.24	-0.12	12.17
3060	-25.02	-0.12	12.19
3070	-24.47	-0.13	12.21
3080	-23.89	-0.13	12.24
3090	-23.18	-0.13	12.27
3100	-22.36	-0.14	12.30
3110	-21.63	-0.14	12.31
3120	-20.87	-0.15	12.31
3130	-20.21	-0.15	12.29
3140	-19.63	-0.16	12.27
3150	-19.08	-0.16	12.26
3160	-18.68	-0.17	12.27
3170	-18.27	-0.18	12.29
3180	-17.89	-0.18	12.31
3190	-17.56	-0.19	12.33
3200	-17.20	-0.19	12.34
3210	-16.89	-0.20	12.35
3220	-16.59	-0.21	12.35
3230	-16.32	-0.21	12.36
3240	-16.12	-0.21	12.38
3250	-15.91	-0.21	12.40
3260	-15.78	-0.22	12.43
3270	-15.69	-0.22	12.45
3280	-15.60	-0.22	12.46
3290	-15.58	-0.23	12.47
3300	-15.55	-0.23	12.48
3310	-15.53	-0.23	12.49
3320	-15.52	-0.23	12.49
3330	-15.49	-0.23	12.48
3340	-15.52	-0.24	12.47
3350	-15.54	-0.23	12.45
3360	-15.62	-0.23	12.42
3370	-15.76	-0.23	12.40
3380	-15.86	-0.23	12.37
3390	-16.02	-0.23	12.34
3400	-16.18	-0.22	12.33
3410	-16.35	-0.22	12.31
3420	-16.57	-0.22	12.29
3430	-16.76	-0.22	12.28
3440	-17.01	-0.22	12.27
3450	-17.24	-0.22	12.25
3460	-17.49	-0.22	12.23
3470	-17.81	-0.21	12.23
3480	-18.07	-0.21	12.23
3490	-18.44	-0.21	12.22
3500	-18.82	-0.20	12.22
3510	-19.20	-0.20	12.22
3520	-19.69	-0.19	12.20
3530	-20.13	-0.18	12.16
3540	-20.68	-0.18	12.14
3550	-21.23	-0.17	12.12
3560	-21.76	-0.17	12.10
3570	-22.46	-0.16	12.10
3580	-23.09	-0.16	12.11
3590	-23.94	-0.16	12.12
3600	-24.90	-0.15	12.11
3610	-25.76	-0.15	12.11
3620	-27.05	-0.14	12.11
3630	-28.21	-0.14	12.11
3640	-29.54	-0.14	12.11
3650	-31.30	-0.13	12.13
3660	-32.72	-0.13	12.14
3670	-35.02	-0.13	12.13
3680	-37.22	-0.13	12.12
3690	-37.86	-0.13	12.11
3700	-37.62	-0.13	12.09
3710	-35.76	-0.13	12.08
3720	-33.33	-0.13	12.09
3730	-31.98	-0.13	12.10
3740	-30.34	-0.13	12.10
3750	-28.93	-0.13	12.11
3760	-28.08	-0.13	12.12
3770	-26.89	-0.14	12.12
3780	-26.17	-0.14	12.13
3790	-25.43	-0.14	12.13
3800	-24.64	-0.14	12.12
3810	-24.24	-0.14	12.11
3820	-23.49	-0.15	12.09
3830	-23.02	-0.15	12.05
3840	-22.58	-0.15	12.00
3850	-22.05	-0.15	11.96
3860	-21.85	-0.15	11.93
3870	-21.41	-0.15	11.90
3880	-21.15	-0.16	11.87
3890	-20.98	-0.16	11.86
3900	-20.64	-0.16	11.83
3910	-20.59	-0.16	11.78
3920	-20.33	-0.16	11.74
3930	-20.19	-0.17	11.69
3940	-20.12	-0.17	11.65
3950	-19.84	-0.17	11.61
3960	-19.86	-0.17	11.57
3970	-19.72	-0.17	11.54
3980	-19.71	-0.17	11.50
3990	-19.85	-0.17	11.46
4000	-19.79	-0.17	11.43
4010	-20.02	-0.17	11.40
4020	-20.05	-0.17	11.39
4030	-20.12	-0.17	11.40
4040	-20.35	-0.17	11.43
4050	-20.32	-0.17	11.47
4060	-20.60	-0.17	11.52
4070	-20.68	-0.17	11.57
4080	-20.76	-0.17	11.62
4090	-21.07	-0.17	11.67
4100	-21.10	-0.17	11.71
4110	-21.43	-0.17	11.76
4120	-21.59	-0.17	11.80
4130	-21.78	-0.17	11.84
4140	-22.20	-0.17	11.88
4150	-22.20	-0.17	11.92
4160	-22.54	-0.17	11.95
4170	-22.69	-0.17	11.99
4180	-22.74	-0.17	12.02
4190	-23.11	-0.17	12.04
4200	-23.04	-0.17	12.06
4210	-23.31	-0.17	12.07
4220	-23.45	-0.17	12.08
4230	-23.47	-0.17	12.09
4240	-23.88	-0.17	12.10
4250	-23.87	-0.17	12.11
4260	-24.23	-0.17	12.13
4270	-24.46	-0.17	12.14
4280	-24.53	-0.17	12.14
4290	-24.98	-0.17	12.14
4300	-24.90	-0.17	12.14
4310	-25.16	-0.17	12.14
4320	-25.31	-0.17	12.14
4330	-25.25	-0.17	12.14
4340	-25.57	-0.17	12.15
4350	-25.52	-0.17	12.17
4360	-25.91	-0.17	12.18
4370	-26.13	-0.17	12.20
4380	-26.25	-0.17	12.20
4390	-26.80	-0.17	12.19
4400	-26.88	-0.17	12.18
4410	-27.47	-0.17	12.16
4420	-27.84	-0.16	12.14
4430	-28.02	-0.16	12.14
4440	-28.61	-0.16	12.14
4450	-28.60	-0.16	12.15
4460	-29.13	-0.16	12.17
4470	-29.38	-0.16	12.18
4480	-29.62	-0.16	12.19
4490	-30.37	-0.16	12.19
4500	-30.29	-0.16	12.18
4510	-31.01	-0.16	12.17
4520	-31.10	-0.16	12.16
4530	-31.29	-0.16	12.14
4540	-31.47	-0.16	12.13
4550	-30.95	-0.16	12.12
4560	-31.12	-0.16	12.13
4570	-30.41	-0.16	12.14
4580	-30.02	-0.15	12.16
4590	-29.26	-0.16	12.18
4600	-28.30	-0.16	12.19
4610	-27.78	-0.16	12.19
4620	-26.78	-0.16	12.18
4630	-26.31	-0.16	12.17
4640	-25.72	-0.16	12.15
4650	-25.08	-0.16	12.14
4660	-24.75	-0.17	12.13
4670	-24.15	-0.17	12.13
4680	-23.88	-0.17	12.13
4690	-23.46	-0.17	12.13
4700	-23.04	-0.17	12.12
4710	-22.86	-0.18	12.11
4720	-22.35	-0.18	12.08
4730	-22.10	-0.18	12.06
4740	-21.78	-0.18	12.04
4750	-21.40	-0.18	12.03
4760	-21.29	-0.19	12.01
4770	-21.00	-0.19	12.00
4780	-20.93	-0.19	11.99
4790	-20.81	-0.19	11.98
4800	-20.63	-0.19	11.96
4810	-20.66	-0.19	11.96
4820	-20.45	-0.19	11.96
4830	-20.42	-0.20	11.95
4840	-20.37	-0.20	11.96
4850	-20.21	-0.19	11.97
4860	-20.28	-0.20	11.97
4870	-20.19	-0.20	11.97
4880	-20.25	-0.20	11.97
4890	-20.33	-0.20	11.97
4900	-20.30	-0.20	11.97
4910	-20.48	-0.20	11.96
4920	-20.49	-0.20	11.96
4930	-20.61	-0.20	11.96
4940	-20.79	-0.20	11.97
4950	-20.80	-0.20	11.97
4960	-21.04	-0.19	11.98
4970	-21.15	-0.19	11.99
4980	-21.29	-0.19	12.00
4990	-21.60	-0.19	12.02
5000	-21.73	-0.19	12.04
5010	-22.10	-0.19	12.07
5020	-22.36	-0.19	12.10
5030	-22.63	-0.18	12.13
5040	-23.11	-0.18	12.16
5050	-23.37	-0.18	12.19
5060	-23.81	-0.18	12.22
5070	-24.18	-0.17	12.25
5080	-24.50	-0.17	12.26
5090	-25.10	-0.17	12.28
5100	-25.45	-0.17	12.29
5110	-26.03	-0.17	12.30
5120	-26.72	-0.17	12.31
5130	-27.21	-0.16	12.34
5140	-27.99	-0.16	12.36
5150	-28.44	-0.16	12.39
5160	-28.86	-0.16	12.43
5170	-29.36	-0.16	12.46
5180	-29.30	-0.16	12.49
5190	-29.33	-0.16	12.50
5200	-29.13	-0.16	12.52
5210	-28.66	-0.16	12.54
5220	-28.41	-0.16	12.55
5230	-27.76	-0.16	12.57
5240	-27.07	-0.16	12.59
5250	-26.49	-0.16	12.61
5260	-25.71	-0.16	12.62
5270	-25.20	-0.17	12.64
5280	-24.57	-0.17	12.65
5290	-23.94	-0.17	12.66
5300	-23.53	-0.17	12.66
5310	-22.96	-0.17	12.65
5320	-22.56	-0.17	12.65
5330	-22.20	-0.17	12.65
5340	-21.75	-0.18	12.65
5350	-21.46	-0.18	12.66
5360	-21.04	-0.18	12.67
5370	-20.68	-0.19	12.67
5380	-20.38	-0.19	12.66
5390	-20.07	-0.19	12.64
5400	-19.87	-0.19	12.60
5410	-19.61	-0.20	12.55
5420	-19.42	-0.20	12.50
5430	-19.31	-0.20	12.46
5440	-19.10	-0.20	12.43
5450	-18.97	-0.20	12.41
5460	-18.85	-0.21	12.39
5470	-18.75	-0.21	12.38
5480	-18.67	-0.21	12.37
5490	-18.50	-0.21	12.35
5500	-18.45	-0.21	12.33
5510	-18.43	-0.21	12.32
5520	-18.37	-0.21	12.31
5530	-18.39	-0.21	12.32
5540	-18.41	-0.21	12.33
5550	-18.48	-0.21	12.34
5560	-18.55	-0.21	12.35
5570	-18.60	-0.21	12.36
5580	-18.71	-0.21	12.36
5590	-18.76	-0.21	12.35
5600	-18.84	-0.21	12.35
5610	-18.99	-0.21	12.33
5620	-19.14	-0.21	12.32
5630	-19.33	-0.21	12.32
5640	-19.51	-0.21	12.33
5650	-19.73	-0.20	12.34
5660	-19.99	-0.20	12.36
5670	-20.17	-0.20	12.38
5680	-20.45	-0.20	12.40
5690	-20.72	-0.19	12.41
5700	-20.91	-0.19	12.42
5710	-21.17	-0.19	12.44
5720	-21.45	-0.19	12.45
5730	-21.74	-0.19	12.46
5740	-22.02	-0.19	12.47
5750	-22.28	-0.18	12.48
5760	-22.63	-0.18	12.47
5770	-22.87	-0.18	12.47
5780	-23.09	-0.18	12.47
5790	-23.35	-0.18	12.47
5800	-23.51	-0.17	12.47
5810	-23.67	-0.18	12.49
5820	-23.81	-0.17	12.49
5830	-23.81	-0.17	12.50
5840	-23.84	-0.18	12.52
5850	-23.82	-0.17	12.52
5860	-23.67	-0.17	12.53
5870	-23.60	-0.17	12.53
5880	-23.44	-0.17	12.53
5890	-23.23	-0.18	12.51
5900	-23.00	-0.17	12.50
5910	-22.72	-0.18	12.48
5920	-22.37	-0.18	12.48
5930	-22.02	-0.18	12.47
5940	-21.74	-0.18	12.46
5950	-21.44	-0.18	12.44
5960	-21.13	-0.18	12.43
5970	-20.90	-0.19	12.40
5980	-20.59	-0.19	12.37
5990	-20.33	-0.19	12.34
6000	-20.09	-0.19	12.31
6020	-19.56	-0.20	12.28
6040	-19.14	-0.21	12.25
6060	-18.80	-0.21	12.22
6080	-18.53	-0.21	12.21
6100	-18.32	-0.21	12.20
6120	-18.14	-0.22	12.21
6140	-18.02	-0.22	12.22
6160	-17.98	-0.22	12.25
6180	-18.05	-0.22	12.27
6200	-18.14	-0.22	12.29
6220	-18.26	-0.22	12.29
6240	-18.46	-0.22	12.28
6260	-18.70	-0.22	12.27
6280	-19.03	-0.21	12.27
6300	-19.43	-0.21	12.28
6320	-19.82	-0.20	12.29
6340	-20.24	-0.20	12.30
6360	-20.83	-0.20	12.30
6380	-21.41	-0.19	12.27
6400	-21.91	-0.18	12.25
6420	-22.35	-0.18	12.23
6440	-22.78	-0.18	12.22
6460	-23.13	-0.18	12.22
6480	-23.34	-0.18	12.21
6500	-23.24	-0.18	12.21
6520	-22.94	-0.18	12.19
6540	-22.53	-0.18	12.18
6560	-22.11	-0.18	12.14
6580	-21.61	-0.18	12.12
6600	-21.05	-0.18	12.10
6620	-20.54	-0.19	12.08
6640	-20.02	-0.19	12.05
6660	-19.58	-0.20	12.01
6680	-19.19	-0.20	11.97
6700	-18.92	-0.20	11.91
6720	-18.73	-0.20	11.86
6740	-18.57	-0.21	11.81
6760	-18.41	-0.21	11.76
6780	-18.39	-0.21	11.72
6800	-18.45	-0.21	11.69
6820	-18.58	-0.21	11.67
6840	-18.72	-0.21	11.65
6860	-19.02	-0.21	11.64
6880	-19.21	-0.20	11.64
6900	-19.58	-0.20	11.63
6920	-20.06	-0.20	11.63
6940	-20.54	-0.20	11.64
6960	-21.01	-0.19	11.65
6980	-21.52	-0.19	11.64
7000	-22.11	-0.19	11.64
7020	-22.66	-0.18	11.63
7040	-23.20	-0.18	11.61
7060	-23.62	-0.18	11.59
7080	-24.02	-0.18	11.59
7100	-24.26	-0.17	11.59
7120	-24.42	-0.17	11.58
7140	-24.22	-0.17	11.59
7160	-23.96	-0.17	11.59
7180	-23.64	-0.17	11.58
7200	-23.35	-0.17	11.56
7220	-22.90	-0.17	11.54
7240	-22.43	-0.17	11.53
7260	-22.03	-0.17	11.51
7280	-21.74	-0.17	11.50
7300	-21.45	-0.17	11.50
7320	-21.14	-0.18	11.48
7340	-20.98	-0.17	11.44
7360	-20.78	-0.18	11.40
7380	-20.79	-0.18	11.37
7400	-20.65	-0.17	11.33
7420	-20.60	-0.18	11.30
7440	-20.62	-0.18	11.29
7460	-20.84	-0.17	11.28
7480	-21.08	-0.17	11.27
7500	-21.29	-0.17	11.26
7520	-21.57	-0.18	11.26
7540	-21.95	-0.18	11.25
7560	-22.38	-0.17	11.25
7580	-22.85	-0.17	11.29
7600	-23.18	-0.17	11.32
7620	-24.00	-0.17	11.37
7640	-24.63	-0.17	11.41
7660	-25.45	-0.17	11.47
7680	-26.26	-0.17	11.51
7700	-26.94	-0.17	11.54
7720	-27.56	-0.16	11.58
7740	-28.12	-0.16	11.64
7760	-28.50	-0.16	11.69
7780	-28.41	-0.16	11.73
7800	-28.43	-0.15	11.78
7820	-28.37	-0.15	11.81
7840	-28.07	-0.15	11.81
7860	-27.64	-0.15	11.81
7880	-27.27	-0.15	11.81
7900	-26.85	-0.15	11.80
7920	-26.47	-0.15	11.78
7940	-26.08	-0.15	11.77
7960	-25.61	-0.15	11.75
7980	-25.46	-0.15	11.72
8000	-25.54	-0.15	11.68
8020	-25.06	-0.15	11.66
8040	-24.92	-0.16	11.64
8060	-24.89	-0.16	11.62
8080	-24.87	-0.15	11.62
8100	-25.22	-0.16	11.64
8120	-25.36	-0.16	11.65
8140	-25.42	-0.16	11.65
8160	-25.52	-0.16	11.65
8180	-25.78	-0.17	11.67
8200	-26.20	-0.17	11.69
8220	-26.46	-0.17	11.73
8240	-26.90	-0.17	11.78
8260	-27.29	-0.17	11.84
8280	-27.99	-0.18	11.89
8300	-28.59	-0.18	11.94
8320	-29.26	-0.18	11.98
8340	-30.07	-0.17	12.01
8360	-30.80	-0.18	12.05
8380	-31.83	-0.17	12.10
8400	-33.03	-0.17	12.14
8420	-34.42	-0.17	12.18
8440	-35.48	-0.17	12.21
8460	-36.33	-0.17	12.23
8480	-37.69	-0.17	12.23
8500	-38.10	-0.17	12.21
8520	-37.71	-0.16	12.19
8540	-37.50	-0.17	12.18
8560	-36.12	-0.17	12.16
8580	-34.56	-0.17	12.14
8600	-32.87	-0.17	12.12
8620	-32.16	-0.17	12.09
8640	-31.48	-0.17	12.04
8660	-30.75	-0.17	12.00
8680	-29.45	-0.18	11.98
8700	-28.93	-0.18	11.95
8720	-28.26	-0.18	11.95
8740	-27.57	-0.19	11.95
8760	-27.02	-0.20	11.96
8780	-26.74	-0.20	11.95
8800	-26.03	-0.21	11.95
8820	-25.92	-0.21	11.97
8840	-25.64	-0.21	11.99
8860	-25.40	-0.22	12.01
8880	-25.23	-0.22	12.05
8900	-25.36	-0.23	12.11
8920	-25.38	-0.23	12.16
8940	-25.52	-0.23	12.21
8960	-25.68	-0.23	12.26
8980	-25.98	-0.23	12.29
9000	-26.14	-0.23	12.31
9020	-26.68	-0.23	12.33
9040	-27.24	-0.22	12.34
9060	-27.53	-0.22	12.36
9080	-27.86	-0.23	12.38
9100	-28.49	-0.22	12.39
9120	-29.04	-0.22	12.39
9140	-29.31	-0.22	12.39
9160	-29.58	-0.22	12.39
9180	-29.79	-0.23	12.38
9200	-29.84	-0.23	12.37
9220	-29.56	-0.23	12.37
9240	-29.05	-0.23	12.36
9260	-28.36	-0.23	12.35
9280	-27.73	-0.24	12.34
9300	-27.25	-0.24	12.33
9320	-26.66	-0.25	12.32
9340	-26.17	-0.25	12.33
9360	-25.71	-0.26	12.34
9380	-25.30	-0.26	12.35
9400	-24.87	-0.27	12.35
9420	-24.48	-0.27	12.35
9440	-24.26	-0.27	12.33
9460	-24.05	-0.28	12.34
9480	-23.77	-0.28	12.35
9500	-23.73	-0.28	12.39
9520	-23.72	-0.28	12.43
9540	-23.78	-0.29	12.49
9560	-23.83	-0.29	12.52
9580	-23.97	-0.29	12.55
9600	-24.02	-0.29	12.58
9620	-24.27	-0.29	12.61
9640	-24.60	-0.29	12.64
9660	-25.06	-0.28	12.66
9680	-25.25	-0.28	12.69
9700	-25.54	-0.28	12.72
9720	-26.02	-0.28	12.72
9740	-26.64	-0.28	12.72
9760	-26.89	-0.28	12.72
9780	-27.24	-0.28	12.72
9800	-27.58	-0.27	12.72
9820	-27.88	-0.27	12.70
9840	-28.10	-0.27	12.70
9860	-28.01	-0.28	12.69
9880	-27.99	-0.27	12.68
9900	-27.75	-0.27	12.67
9920	-27.71	-0.28	12.69
9940	-27.33	-0.28	12.71
9960	-26.81	-0.28	12.70
9980	-26.49	-0.28	12.71
10000	-26.39	-0.28	12.72
10020	-26.05	-0.28	12.72
10040	-25.83	-0.28	12.72
10060	-25.67	-0.28	12.74
10080	-25.33	-0.28	12.78
10100	-25.27	-0.28	12.82
10120	-25.43	-0.28	12.85
10140	-25.25	-0.28	12.89
10160	-25.44	-0.28	12.91
10180	-25.50	-0.28	12.93
10200	-25.86	-0.27	12.94
10220	-26.12	-0.27	12.98
10240	-26.55	-0.27	13.01
10260	-26.76	-0.26	13.03
10280	-27.33	-0.26	13.05
10300	-28.08	-0.26	13.07
10320	-28.65	-0.25	13.08
10340	-29.23	-0.25	13.09
10360	-30.10	-0.25	13.11
10380	-31.21	-0.24	13.14
10400	-32.34	-0.24	13.16
10420	-33.09	-0.24	13.18
10440	-34.72	-0.23	13.21
10460	-35.59	-0.23	13.22
10480	-36.16	-0.23	13.24
10500	-36.04	-0.23	13.27
10520	-36.65	-0.23	13.31
10540	-35.97	-0.22	13.34
10560	-35.58	-0.22	13.37
10580	-34.57	-0.23	13.42
10600	-34.19	-0.23	13.46
10620	-33.91	-0.22	13.49
10640	-33.90	-0.22	13.54
10660	-33.45	-0.22	13.61
10680	-34.33	-0.22	13.68
10700	-35.75	-0.22	13.74
10720	-35.94	-0.21	13.81
10740	-37.82	-0.21	13.87
10760	-37.97	-0.21	13.91
10780	-40.70	-0.21	13.96
10800	-42.67	-0.21	14.00
10820	-45.35	-0.21	14.05
10840	-42.34	-0.21	14.10
10860	-40.09	-0.21	14.16
10880	-36.11	-0.21	14.21
10900	-33.86	-0.21	14.27
10920	-32.42	-0.21	14.32
10940	-30.53	-0.21	14.38
10960	-28.84	-0.21	14.44
10980	-27.66	-0.22	14.49
11000	-26.39	-0.22	14.54
11020	-25.87	-0.23	14.58
11040	-24.98	-0.23	14.61
11060	-24.00	-0.23	14.63
11080	-23.69	-0.24	14.67
11100	-23.19	-0.24	14.69
11120	-22.83	-0.25	14.72
11140	-22.37	-0.25	14.73
11160	-21.64	-0.26	14.76
11180	-21.18	-0.26	14.76
11200	-20.83	-0.26	14.76
11220	-21.45	-0.28	14.76
11240	-20.72	-0.28	14.78
11260	-20.73	-0.29	14.79
11280	-20.28	-0.29	14.81
11300	-20.15	-0.30	14.84
11320	-19.82	-0.31	14.85
11340	-19.45	-0.32	14.87
11360	-19.10	-0.33	14.87
11380	-18.76	-0.34	14.89
11400	-18.46	-0.35	14.90
11420	-18.13	-0.37	14.92
11440	-17.64	-0.38	14.94
11460	-17.20	-0.39	14.95
11480	-16.76	-0.41	14.94
11500	-16.36	-0.43	14.93
11520	-15.87	-0.45	14.93
11540	-15.43	-0.47	14.91
11560	-15.14	-0.49	14.90
11580	-14.69	-0.52	14.89
11600	-14.29	-0.54	14.88
11620	-13.97	-0.56	14.86
11640	-13.66	-0.59	14.83
11660	-13.31	-0.61	14.81
11680	-13.04	-0.64	14.81
11700	-12.72	-0.66	14.80
11720	-12.57	-0.69	14.81
11740	-12.34	-0.70	14.82
11760	-12.09	-0.73	14.82
11780	-11.90	-0.75	14.79
11800	-11.78	-0.78	14.77
11820	-11.60	-0.80	14.74
11840	-11.43	-0.82	14.72
11860	-11.22	-0.85	14.70
11880	-11.03	-0.88	14.71
11900	-10.85	-0.91	14.70
11920	-10.63	-0.94	14.71
11940	-10.30	-0.98	14.68
11960	-10.06	-1.02	14.66
11980	-9.81	-1.06	14.57
12000	-9.54	-1.12	14.57